File: Cell_4_GEIS.csv
SOC [%],Voltage [V],Frequency [Hz],Re(Ztot) [Ohm],-Im(Ztot) [Ohm]
50,1.33532,100003.71,0.14024,-0.186982
50,1.33532,79433.273,0.138659,-0.1432194
50,1.33532,63093.824,0.13734,-0.113013
50,1.335324,50122.477,0.13782,-0.0860203
50,1.33532,39814.059,0.1377639,-0.0630984
50,1.33532,31621.139,0.142251,-0.04743
50,1.33532,25116.91,0.141934,-0.0359472
50,1.33532,19948.785,0.143088,-0.0264042
50,1.33532,15847.683,0.14516,-0.0169532
50,1.33532,12590.93,0.14585,-0.00987724
50,1.33532,10002.226,0.147636,-0.00399932
50,1.33532,7943.999,0.152226,0.00226168
50,1.33531,6307.73,0.153079,0.0047813
50,1.33531,5011.604,0.157017,0.00929127
50,1.33531,3981.27,0.157815,0.0125217
50,1.33531,3161.01,0.160217,0.0166159
50,1.33531,2510.8,0.165143,0.0162781
50,1.33532,1995.64,0.167004,0.0173726
50,1.33532,1585.51,0.172214,0.0192507
50,1.33532,1258.79,0.17413,0.0221505
50,1.33532,1000.32,0.177673,0.0214242
50,1.33532,794.238,0.181813,0.02321651
50,1.33532,631.01,0.1848463,0.0249146
50,1.33532,501.444,0.189155,0.0264158
50,1.33531,398.089,0.1940276,0.0261561
50,1.335315,316.316,0.197125,0.0283004
50,1.33532,251.044,0.201364,0.0288785
50,1.335319,199.553,0.204103,0.0312082
50,1.33532,158.428,0.209397,0.0320054
50,1.33532,125.846,0.214709,0.0364558
50,1.33532,100.032,0.219412,0.03802016
50,1.33532,79.4155,0.22225,0.041643
50,1.33532,63.0823,0.229524,0.04279073
50,1.33532,50.1444,0.233845,0.0470675
50,1.33532,39.8089,0.24146,0.0511919
50,1.33532,31.6296,0.245919,0.0560052
50,1.33532,25.1044,0.252942,0.0612758
50,1.33533,19.9553,0.262186,0.0660558
50,1.335331,15.8576,0.268446,0.0734211
50,1.33533,12.6008,0.2776244,0.0815586
50,1.33533,10.0032,0.287091,0.09212631
50,1.33531,7.93953,0.297073,0.101606
50,1.33532,6.31058,0.309101,0.114279
50,1.33532,5.00801,0.321791,0.1291237
50,1.33533,3.97785,0.3382377,0.146505
50,1.33534,3.16296,0.3574,0.165503
50,1.33534,2.51367,0.380564,0.1870992
50,1.33534,1.99553,0.410518,0.2099283
50,1.335327,1.58533,0.44458,0.230648
50,1.33534,1.25967,0.485011,0.249731
50,1.33533,1.00006,0.5297327,0.263655
50,1.33534,0.793631,0.576802,0.271545
50,1.33535,0.630905,0.623196,0.2718001
50,1.33535,0.501541,0.6672489,0.268801
50,1.33535,0.397745,0.707298,0.261376
50,1.33536,0.3161931,0.74218,0.251702
50,1.33539,0.251222,0.772101,0.241581
50,1.33541,0.199339,0.798686,0.232591
50,1.33542,0.158607,0.824012,0.227151
50,1.335428,0.125939,0.847282,0.223618
50,1.33544,0.10007,0.869149,0.220964
50,1.33568,100003.71,0.138476,-0.1867062
50,1.33565,79433.273,0.138002,-0.144985
50,1.33565,63093.824,0.137716,-0.112002
50,1.33564,50122.477,0.138544,-0.0863865
50,1.33564,39814.059,0.138467,-0.0655155
50,1.335636,31621.139,0.139958,-0.0480262
50,1.33563,25116.91,0.1437389,-0.0368539
50,1.33563,19948.785,0.14395,-0.0253444
50,1.33562,15847.683,0.145872,-0.01740171
50,1.33562,12590.93,0.1470698,-0.00962485
50,1.33561,10002.226,0.150879,-0.00359605
50,1.335609,7943.999,0.151561,0.000933743
50,1.3356,6307.73,0.152839,0.005250378
50,1.33559,5011.604,0.15647,0.00788528
50,1.33559,3981.27,0.158907,0.0112516
50,1.33559,3161.01,0.162967,0.0147062
50,1.335584,2510.8,0.165257,0.0165873
50,1.33559,1995.64,0.169368,0.0184684
50,1.33559,1585.51,0.172411,0.0210812
50,1.33558,1258.79,0.175258,0.0221896
50,1.33558,1000.32,0.178401,0.0227881
50,1.33558,794.238,0.182751,0.0240075
50,1.33557,631.01,0.184055,0.0250362
50,1.33557,501.444,0.18915,0.0253269
50,1.33557,398.089,0.19324,0.0268409
50,1.33557,316.316,0.195998,0.028104
50,1.33557,251.044,0.201761,0.028698
50,1.33557,199.553,0.205167,0.0306603
50,1.33557,158.428,0.209598,0.034617
50,1.33557,125.846,0.213212,0.03593694
50,1.33556,100.032,0.21912,0.0378753
50,1.33556,79.4155,0.222124,0.0404383
50,1.33556,63.0823,0.2288276,0.04417
50,1.33557,50.1444,0.233257,0.0470785
50,1.33557,39.8089,0.238731,0.0521989
50,1.33557,31.6296,0.245067,0.0562214
50,1.33556,25.1044,0.251228,0.0593196
50,1.33556,19.9553,0.260081,0.0667474
50,1.33556,15.8576,0.268878,0.0738939
50,1.33556,12.6008,0.276429,0.08240664
50,1.33557,10.0032,0.2867628,0.0889499
50,1.33555,7.93953,0.296134,0.0998634
50,1.33556,6.31058,0.309003,0.113352
50,1.33557,5.00801,0.321312,0.129885
50,1.33556,3.97785,0.339518,0.146153
50,1.33556,3.16296,0.3588948,0.165175
50,1.33557,2.51367,0.383195,0.185868
50,1.33556,1.99553,0.4133817,0.206439
50,1.33556,1.58533,0.448056,0.226155
50,1.33556,1.25967,0.4889487,0.243432
50,1.33556,1.00006,0.53291,0.255045
50,1.33556,0.793631,0.579361,0.263154
50,1.335565,0.630905,0.624155,0.263002
50,1.33557,0.501541,0.666902,0.258832
50,1.33556,0.397745,0.70645,0.253943
50,1.33556,0.3161931,0.740659,0.246357
50,1.33557,0.251222,0.771327,0.238081
50,1.33559,0.199339,0.797998,0.230303
50,1.3356,0.158607,0.821901,0.224152
50,1.33562,0.125939,0.846227,0.221811
50,1.335618,0.10007,0.8695305,0.2211062