File: Cell_8_GEIS.csv
SOC [%],Voltage [V],Frequency [Hz],Re(Ztot) [Ohm],-Im(Ztot) [Ohm]
100,1.60516,100003.71,0.104897,-0.115871
100,1.60515,25116.91,0.111043,-0.00698673
100,1.60514,6307.73,0.13407,0.0413304
100,1.60513,1585.51,0.15994,0.10686
100,1.60511,398.089,0.19502,0.363109
100,1.60511,100.032,0.352844,1.32843
100,1.6049,25.1044,1.78268,4.38785
100,1.604,6.31058,8.66064,6.53771
100,1.60364,1.58533,11.93759,2.80533
100,1.60374,0.397745,12.0243,1.79509
100,1.60447,0.10007,12.1992,2.61735
100,1.606,31621.139,0.1105671,-0.0200304
100,1.60581,7943.999,0.132816,0.036097
100,1.605734,1995.64,0.155607,0.0939771
100,1.6057,501.444,0.187356,0.296568
100,1.60569,125.846,0.319953,1.07169
100,1.60557,31.6296,1.59685,3.54964
100,1.60501,7.93953,7.31415,5.15778
100,1.60466,1.99553,10.61378,2.48766
100,1.6046,0.501541,11.20317,1.67755
100,1.60508,0.125939,11.6333,2.34536
90,1.46503,39814.059,0.118211,-0.0465413
90,1.46503,10002.226,0.117444,-0.00612502
90,1.46503,2510.8,0.129129,0.0103136
90,1.46503,631.01,0.138856,0.0161826
90,1.46503,158.428,0.156717,0.0366892
90,1.46504,39.8089,0.192409,0.0701788
90,1.46504,10.0032,0.279365,0.132176
90,1.46504,2.51367,0.424042,0.156756
90,1.46506,0.630905,0.542778,0.156072
90,1.46513,0.158607,0.646275,0.180512
90,1.46506,50122.477,0.116211,-0.06114218
90,1.46511,12590.93,0.119296,-0.00950703
90,1.46512,3161.01,0.127972,0.00847559
90,1.46514,794.238,0.136296,0.01891214
90,1.46514,199.553,0.153211,0.0286193
90,1.46516,50.1444,0.183631,0.0642057
90,1.46517,12.6008,0.254388,0.123324
90,1.46517,3.16296,0.4039152,0.158156
90,1.4652,0.793631,0.531335,0.15652
90,1.46528,0.199339,0.630775,0.174516
80,1.42657,63093.824,0.108195,-0.0717924
80,1.42658,15847.683,0.108935,-0.0114717
80,1.42657,3981.27,0.113369,0.00387843
80,1.42658,1000.32,0.117594,0.012871
80,1.42659,251.044,0.134029,0.0174398
80,1.42658,63.0823,0.154109,0.0353746
80,1.4266,15.8576,0.188646,0.0716152
80,1.4266,3.97785,0.28656,0.137291
80,1.42662,1.00006,0.4321492,0.156967
80,1.42669,0.251222,0.545632,0.16351
80,1.42659,79433.273,0.114042,-0.0988696
80,1.4267,19948.785,0.10715,-0.0198671
80,1.42673,5011.604,0.111058,0.000953742
80,1.42676,1258.79,0.1206318,0.0109618
80,1.42677,316.316,0.131843,0.01879357
80,1.42678,79.4155,0.153438,0.03371574
80,1.42679,19.9553,0.182563,0.0628248
80,1.4268,5.00801,0.26335,0.130503
80,1.42683,1.25967,0.411117,0.159617
80,1.4269,0.3161931,0.531296,0.162022
70,1.39042,100003.71,0.113092,-0.124011
70,1.39043,25116.91,0.109865,-0.0239427
70,1.39042,6307.73,0.114626,0.000938409
70,1.39043,1585.51,0.12144,0.0109767
70,1.39043,398.089,0.132494,0.01674
70,1.39044,100.032,0.154163,0.0295327
70,1.39044,25.1044,0.178526,0.0507048
70,1.39045,6.31058,0.2332927,0.108376
70,1.39046,1.58533,0.373136,0.174826
70,1.3905,0.397745,0.530517,0.1794
70,1.39065,0.10007,0.656866,0.197754
70,1.39058,31621.139,0.1082187,-0.0355696
70,1.39061,7943.999,0.1138911,0.00118119
70,1.39061,1995.64,0.120566,0.00785119
70,1.39063,501.444,0.13064,0.0181428
70,1.39064,125.846,0.15028,0.0254066
70,1.39065,31.6296,0.17237,0.0444687
70,1.39065,7.93953,0.219436,0.096329
70,1.39067,1.99553,0.344923,0.1696
70,1.39071,0.501541,0.512204,0.183377
70,1.39082,0.125939,0.63916,0.1952609
60,1.35893,39814.059,0.110233,-0.0424446
60,1.35893,10002.226,0.114403,-0.00235262
60,1.35893,2510.8,0.126271,0.0106416
60,1.35892,631.01,0.135953,0.01671811
60,1.35893,158.428,0.160094,0.0239651
60,1.35893,39.8089,0.179828,0.04570647
60,1.35893,10.0032,0.225535,0.0836891
60,1.35894,2.51367,0.324323,0.1696822
60,1.35897,0.630905,0.519316,0.212232
60,1.35906,0.158607,0.682791,0.211439
60,1.35909,50122.477,0.112509,-0.0580132
60,1.35912,12590.93,0.113936,-0.00826082
60,1.35912,3161.01,0.125028,0.00982806
60,1.35913,794.238,0.134879,0.0143465
60,1.35913,199.553,0.151994,0.0237914
60,1.35914,50.1444,0.175953,0.0396519
60,1.35915,12.6008,0.213049,0.07452219
60,1.35914,3.16296,0.299449,0.153205
60,1.35917,0.793631,0.489458,0.213057
60,1.35924,0.199339,0.660102,0.21076
50,1.33352,63093.824,0.120218,-0.074851
50,1.33353,15847.683,0.124949,-0.00978423
50,1.33352,3981.27,0.136678,0.0102822
50,1.33353,1000.32,0.148857,0.018494
50,1.33353,251.044,0.170293,0.0252655
50,1.333537,63.0823,0.19624,0.042923
50,1.33354,15.8576,0.239811,0.0733562
50,1.33355,3.97785,0.309838,0.145373
50,1.33357,1.00006,0.499864,0.274122
50,1.33362,0.251222,0.777743,0.289612
50,1.33408,79433.273,0.126444,-0.102364
50,1.33392,19948.785,0.124035,-0.0173203
50,1.33387,5011.604,0.132566,0.00495296
50,1.33385,1258.79,0.150363,0.0203475
50,1.33384,316.316,0.168265,0.026809
50,1.33384,79.4155,0.193874,0.0417126
50,1.33384,19.9553,0.234604,0.0649049
50,1.33384,5.00801,0.294334,0.131624
50,1.333851,1.25967,0.456995,0.254768
50,1.33388,0.3161931,0.738662,0.292089
40,1.30844,100003.71,0.147686,-0.130816
40,1.30847,25116.91,0.142428,-0.0237696
40,1.30846,6307.73,0.150799,0.0113867
40,1.30847,1585.51,0.17278,0.0244737
40,1.30846,398.089,0.195678,0.0329728
40,1.308475,100.032,0.229584,0.0461881
40,1.30848,25.1044,0.271144,0.0630316
40,1.30848,6.31058,0.328847,0.120008
40,1.308506,1.58533,0.454149,0.250607
40,1.30857,0.397745,0.782291,0.379729
40,1.30874,0.10007,1.09161,0.337793
40,1.3086,31621.139,0.145056,-0.0311037
40,1.30867,7943.999,0.149676,0.00631235
40,1.30869,1995.64,0.167519,0.0246711
40,1.3087,501.444,0.190853,0.0340861
40,1.30872,125.846,0.224323,0.0434333
40,1.30873,31.6296,0.263609,0.0611259
40,1.30874,7.93953,0.3184897,0.1078791
40,1.308766,1.99553,0.424413,0.223505
40,1.30881,0.501541,0.718632,0.37614
40,1.30896,0.125939,1.05549,0.352026
30,1.2719,39814.059,0.185759,-0.0438932
30,1.2719,10002.226,0.197083,0.002828323
30,1.27189,2510.8,0.2170787,0.0298952
30,1.27189,631.01,0.2469126,0.0364379
30,1.27189,158.428,0.286288,0.0474307
30,1.2719,39.8089,0.317087,0.0633844
30,1.27192,10.0032,0.373027,0.0999986
30,1.27191,2.51367,0.464286,0.199825
30,1.27193,0.630905,0.708012,0.416095
30,1.27203,0.158607,1.1868,0.472539
30,1.27239,50122.477,0.1849941,-0.0558903
30,1.27228,12590.93,0.189039,-0.000349981
30,1.27224,3161.01,0.205912,0.0237318
30,1.27223,794.238,0.238545,0.0341312
30,1.27222,199.553,0.269908,0.0416588
30,1.27221,50.1444,0.30875,0.0573828
30,1.27221,12.6008,0.359077,0.0891849
30,1.27221,3.16296,0.443862,0.175505
30,1.27222,0.793631,0.644645,0.373989
30,1.2723,0.199339,1.1119,0.485321
20,1.21677,63093.824,0.269569,-0.0724083
20,1.216785,15847.683,0.27877,-0.002405735
20,1.21678,3981.27,0.302418,0.0160679
20,1.21679,1000.32,0.321894,0.0264329
20,1.21679,251.044,0.344478,0.0318286
20,1.21679,63.0823,0.376026,0.0540585
20,1.21682,15.8576,0.42821,0.0948592
20,1.21682,3.97785,0.511529,0.168104
20,1.21683,1.00006,0.656788,0.369379
20,1.21694,0.251222,1.12566,0.819412
20,1.2168,79433.273,0.268857,-0.0992734
20,1.21714,19948.785,0.2780281,-0.0103376
20,1.21715,5011.604,0.298828,0.0159842
20,1.21715,1258.79,0.318161,0.0218247
20,1.21715,316.316,0.3365944,0.0304493
20,1.21715,79.4155,0.369047,0.0508301
20,1.21716,19.9553,0.418427,0.0835786
20,1.21715,5.00801,0.497725,0.153331
20,1.21719,1.25967,0.621556,0.319648
20,1.217223,0.3161931,1.00002,0.742897
10,1.14866,100003.71,0.453506,-0.128515
10,1.14868,25116.91,0.456046,-0.0122819
10,1.14868,6307.73,0.476794,0.022542
10,1.14868,1585.51,0.510147,0.0529314
10,1.1487,398.089,0.568513,0.0928796
10,1.1487,100.032,0.676259,0.130462
10,1.148708,25.1044,0.795609,0.137358
10,1.14873,6.31058,0.905659,0.174042
10,1.14874,1.58533,1.03679,0.284319
10,1.1488,0.397745,1.25724,0.678266
10,1.14892,0.10007,2.21836,1.49599
10,1.14917,31621.139,0.4590795,-0.0212285
10,1.14906,7943.999,0.47305,0.0208429
10,1.14902,1995.64,0.504492,0.0480494
10,1.14902,501.444,0.555497,0.0831205
10,1.14903,125.846,0.654993,0.1237
10,1.149035,31.6296,0.780235,0.136028
10,1.149048,7.93953,0.88865,0.1598677
10,1.14903,1.99553,1.01443,0.253912
10,1.149109,0.501541,1.20105,0.578562
10,1.14919,0.125939,1.95426,1.38001
0,0.9897539,39814.059,0.627184,-0.0244776
0,0.9897691,10002.226,0.655364,0.0342817
0,0.989772,2510.8,0.706416,0.0808367
0,0.989786,631.01,0.79184,0.146736
0,0.989809,158.428,0.950597,0.266174
0,0.989826,39.8089,1.25602,0.438562
0,0.989869,10.0032,1.71608,0.556532
0,0.989886,2.51367,2.13362,0.736853
0,0.989891,0.630905,2.701725,1.64184
0,0.990179,0.158607,4.812984,3.64473
0,0.993481,50122.477,0.627168,-0.0413822
0,0.991927,12590.93,0.657661,0.0277958
0,0.99144,3161.01,0.700099,0.0765254
0,0.9912,794.238,0.77837,0.137207
0,0.99108,199.553,0.9184401,0.243096
0,0.991017,50.1444,1.19147,0.412739
0,0.990957,12.6008,1.64164,0.542392
0,0.99086,3.16296,2.06983,0.680664
0,0.990919,0.793631,2.55881,1.40765
0,0.99087,0.199339,4.28039,3.30473
0,0.991165,0.10007,6.08595,4.27633