File: Cell_5_GEIS.csv
SOC [%],Voltage [V],Frequency [Hz],Re(Ztot) [Ohm],-Im(Ztot) [Ohm]
40,1.30729,100003.71,0.154643,-0.167505
40,1.3073,79433.273,0.153043,-0.129906
40,1.30729,63093.824,0.1518327,-0.101734
40,1.3073,50122.477,0.152,-0.0767074
40,1.3073,39814.059,0.15286,-0.0582489
40,1.3073,31621.139,0.154661,-0.044201
40,1.307302,25116.91,0.154107,-0.03282759
40,1.3073,19948.785,0.155249,-0.0216711
40,1.3073,15847.683,0.158761,-0.01248767
40,1.30731,12590.93,0.158119,-0.00729678
40,1.3073,10002.226,0.159703,-0.00166442
40,1.307307,7943.999,0.1626,0.00474608
40,1.30729,6307.73,0.166692,0.0085275
40,1.30729,5011.604,0.167579,0.01158902
40,1.30729,3981.27,0.171746,0.0155397
40,1.3073,3161.01,0.174486,0.0192674
40,1.3073,2510.8,0.178426,0.0225233
40,1.30729,1995.64,0.1827618,0.0233373
40,1.3073,1585.51,0.187895,0.0258498
40,1.3073,1258.79,0.1931,0.0265841
40,1.3073,1000.32,0.196038,0.0288896
40,1.3073,794.238,0.201207,0.03253122
40,1.3073,631.01,0.206799,0.03357318
40,1.3073,501.444,0.211545,0.0352906
40,1.3073,398.089,0.216767,0.03571659
40,1.3073,316.316,0.222088,0.0374232
40,1.3073,251.044,0.227684,0.0379698
40,1.3073,199.553,0.233117,0.0405544
40,1.30731,158.428,0.237056,0.0434836
40,1.3073,125.846,0.245224,0.0444873
40,1.3073,100.032,0.250844,0.04763516
40,1.3073,79.4155,0.25547,0.0509824
40,1.3073,63.0823,0.2633549,0.0516438
40,1.3073,50.1444,0.27026,0.057718
40,1.3073,39.8089,0.276931,0.0608466
40,1.3073,31.6296,0.286457,0.0651155
40,1.3073,25.1044,0.293075,0.0703851
40,1.30731,19.9553,0.302621,0.0746857
40,1.30731,15.8576,0.309816,0.0805541
40,1.30731,12.6008,0.320809,0.0890659
40,1.30732,10.0032,0.3298386,0.0978528
40,1.3073,7.93953,0.342023,0.107025
40,1.30732,6.31058,0.354572,0.119928
40,1.30732,5.00801,0.368192,0.133114
40,1.30731,3.97785,0.383509,0.150055
40,1.30733,3.16296,0.400727,0.170551
40,1.30734,2.51367,0.421614,0.1938341
40,1.30732,1.99553,0.448765,0.219252
40,1.307318,1.58533,0.478767,0.2476837
40,1.30733,1.25967,0.516656,0.278
40,1.30733,1.00006,0.562888,0.305671
40,1.30732,0.793631,0.616331,0.33162
40,1.307346,0.630905,0.676364,0.349935
40,1.30736,0.501541,0.739456,0.359377
40,1.30735,0.397745,0.802489,0.360884
40,1.30736,0.3161931,0.861218,0.353139
40,1.30739,0.251222,0.913626,0.340319
40,1.30742,0.199339,0.959034,0.324823
40,1.307444,0.158607,0.998582,0.310825
40,1.30746,0.125939,1.03445,0.299364
40,1.30748,0.10007,1.06631,0.290478
40,1.30789,100003.71,0.15498,-0.168485
40,1.3078,79433.273,0.153671,-0.132455
40,1.30778,63093.824,0.151932,-0.1010295
40,1.307772,50122.477,0.152027,-0.078274
40,1.30777,39814.059,0.152222,-0.0586725
40,1.30776,31621.139,0.15518,-0.0437043
40,1.30775,25116.91,0.155117,-0.0329021
40,1.30773,19948.785,0.155255,-0.022156
40,1.30774,15847.683,0.159283,-0.0133912
40,1.30772,12590.93,0.158233,-0.00743973
40,1.307722,10002.226,0.160148,-0.00235247
40,1.30772,7943.999,0.162757,0.00639891
40,1.3077,6307.73,0.1649407,0.00769265
40,1.3077,5011.604,0.170174,0.0144868
40,1.3077,3981.27,0.172077,0.016918
40,1.30769,3161.01,0.174852,0.0198824
40,1.30769,2510.8,0.179634,0.0227422
40,1.30768,1995.64,0.182511,0.02365366
40,1.30768,1585.51,0.188535,0.0259911
40,1.30767,1258.79,0.189927,0.0280756
40,1.30767,1000.32,0.19519,0.0299751
40,1.30766,794.238,0.201095,0.03009625
40,1.30766,631.01,0.206479,0.0336703
40,1.30766,501.444,0.210968,0.03429541
40,1.30766,398.089,0.216096,0.0362448
40,1.30766,316.316,0.2207457,0.037428
40,1.30765,251.044,0.227026,0.0393885
40,1.30765,199.553,0.232426,0.0401671
40,1.30766,158.428,0.236053,0.0421295
40,1.30765,125.846,0.244351,0.0449183
40,1.30765,100.032,0.250612,0.0457753
40,1.30765,79.4155,0.256176,0.0488807
40,1.30764,63.0823,0.262672,0.0518321
40,1.30764,50.1444,0.269683,0.0559447
40,1.30764,39.8089,0.278507,0.061114
40,1.30764,31.6296,0.284271,0.0630827
40,1.30763,25.1044,0.292957,0.0683516
40,1.30764,19.9553,0.303052,0.076112
40,1.30763,15.8576,0.310415,0.0805864
40,1.30764,12.6008,0.3215569,0.0885794
40,1.30764,10.0032,0.332273,0.0987318
40,1.30762,7.93953,0.342881,0.107278
40,1.30763,6.31058,0.3561146,0.119902
40,1.30764,5.00801,0.3685171,0.133851
40,1.30763,3.97785,0.384482,0.1512883
40,1.30764,3.16296,0.401532,0.1703434
40,1.30764,2.51367,0.423768,0.193117
40,1.30763,1.99553,0.450192,0.218815
40,1.30762,1.58533,0.482226,0.245989
40,1.30762,1.25967,0.521428,0.274682
40,1.30762,1.00006,0.568092,0.3006801
40,1.30761,0.793631,0.621922,0.324308
40,1.30762,0.630905,0.680579,0.34058
40,1.30762,0.501541,0.742596,0.348488
40,1.307613,0.397745,0.8041113,0.351022
40,1.30761,0.3161931,0.8611601,0.345072
40,1.30762,0.251222,0.912761,0.333935
40,1.30764,0.199339,0.957905,0.320683
40,1.30766,0.158607,0.99749,0.307546
40,1.30767,0.125939,1.03368,0.297717
40,1.30768,0.10007,1.06629,0.290114