File: Cell_3_GEIS.csv
SOC [%],Voltage [V],Frequency [Hz],Re(Ztot) [Ohm],-Im(Ztot) [Ohm]
60,1.35686,100003.71,0.1291343,-0.115648
60,1.35686,79433.273,0.129349,-0.0891586
60,1.356861,63093.824,0.126322,-0.0686733
60,1.35686,50122.477,0.124196,-0.0537074
60,1.35687,39814.059,0.126664,-0.0401785
60,1.35687,31621.139,0.127865,-0.0264508
60,1.35687,25116.91,0.127876,-0.0209376
60,1.35687,19948.785,0.128788,-0.0125685
60,1.35687,15847.683,0.129767,-0.0102804
60,1.35687,12590.93,0.132144,-0.003705366
60,1.35687,10002.226,0.132106,0.000199829
60,1.35687,7943.999,0.135724,0.004835533
60,1.35686,6307.73,0.1360667,0.00486868
60,1.35686,5011.604,0.140012,0.00632104
60,1.35685,3981.27,0.141292,0.00860292
60,1.35686,3161.01,0.144754,0.0105183
60,1.35686,2510.8,0.145663,0.0126483
60,1.35686,1995.64,0.148217,0.0153777
60,1.35686,1585.51,0.150479,0.0172676
60,1.35686,1258.79,0.153314,0.0157337
60,1.35686,1000.32,0.155097,0.0185062
60,1.35685,794.238,0.1585384,0.0202518
60,1.35686,631.01,0.16056,0.021195
60,1.35686,501.444,0.164188,0.0216286
60,1.35686,398.089,0.166465,0.02369741
60,1.356861,316.316,0.16973,0.0239146
60,1.35685,251.044,0.173044,0.0263269
60,1.35686,199.553,0.176984,0.028731
60,1.35687,158.428,0.183354,0.0298533
60,1.35686,125.846,0.184738,0.0335947
60,1.35687,100.032,0.188493,0.035576
60,1.35687,79.4155,0.194363,0.0388139
60,1.35687,63.0823,0.197415,0.0417231
60,1.35687,50.1444,0.203947,0.0431755
60,1.35686,39.8089,0.208377,0.0478029
60,1.35687,31.6296,0.2149529,0.0519053
60,1.35687,25.1044,0.220473,0.0584235
60,1.35687,19.9553,0.2290474,0.061329
60,1.35687,15.8576,0.234907,0.0700351
60,1.35687,12.6008,0.243382,0.076821
60,1.35686,10.0032,0.252503,0.0861957
60,1.35687,7.93953,0.262607,0.0968504
60,1.35687,6.31058,0.274582,0.108628
60,1.35686,5.00801,0.289832,0.123531
60,1.35688,3.97785,0.306211,0.138607
60,1.35688,3.16296,0.326789,0.154483
60,1.35689,2.51367,0.351261,0.169815
60,1.35689,1.99553,0.380102,0.185318
60,1.356876,1.58533,0.412298,0.198075
60,1.35689,1.25967,0.446621,0.2068198
60,1.356877,1.00006,0.483684,0.211816
60,1.35688,0.793631,0.518841,0.212384
60,1.35689,0.630905,0.551168,0.207416
60,1.35689,0.501541,0.581096,0.20387
60,1.35689,0.397745,0.608073,0.198428
60,1.3569,0.3161931,0.6314739,0.192043
60,1.35692,0.251222,0.651659,0.186089
60,1.35693,0.199339,0.670455,0.182042
60,1.35694,0.158607,0.689128,0.180963
60,1.35695,0.125939,0.707224,0.18161
60,1.35696,0.10007,0.724508,0.18257
60,1.35717,100003.71,0.128655,-0.1150423
60,1.35715,79433.273,0.12702,-0.0881902
60,1.35715,63093.824,0.126888,-0.0689962
60,1.35715,50122.477,0.12517,-0.0513089
60,1.35714,39814.059,0.125234,-0.0373393
60,1.35714,31621.139,0.12729,-0.0291189
60,1.35714,25116.91,0.129362,-0.0211762
60,1.35713,19948.785,0.12906,-0.0130612
60,1.35713,15847.683,0.129647,-0.00817924
60,1.35712,12590.93,0.1318634,-0.00311427
60,1.35712,10002.226,0.132904,-0.00102937
60,1.35712,7943.999,0.13555,0.00241841
60,1.35711,6307.73,0.1353633,0.00578181
60,1.3571,5011.604,0.139068,0.00630168
60,1.3571,3981.27,0.140717,0.00951609
60,1.3571,3161.01,0.1428863,0.0115142
60,1.3571,2510.8,0.146049,0.0124004
60,1.3571,1995.64,0.147712,0.0153736
60,1.35709,1585.51,0.151022,0.0155327
60,1.35709,1258.79,0.152517,0.0160025
60,1.3571,1000.32,0.154748,0.018005
60,1.357092,794.238,0.1572209,0.0186317
60,1.35709,631.01,0.160925,0.0213607
60,1.35709,501.444,0.165226,0.0212665
60,1.35709,398.089,0.166248,0.0247368
60,1.35709,316.316,0.171423,0.0245549
60,1.35709,251.044,0.172786,0.0271572
60,1.35709,199.553,0.176462,0.0279743
60,1.357089,158.428,0.17986,0.0308197
60,1.35708,125.846,0.184703,0.0308192
60,1.35708,100.032,0.190596,0.0344255
60,1.35709,79.4155,0.192835,0.0377234
60,1.35709,63.0823,0.198846,0.039072
60,1.357084,50.1444,0.203261,0.04416278
60,1.35708,39.8089,0.2101834,0.0473867
60,1.35708,31.6296,0.215024,0.05177087
60,1.35708,25.1044,0.22186,0.0553667
60,1.357078,19.9553,0.22836,0.0624316
60,1.35708,15.8576,0.235091,0.0669401
60,1.35708,12.6008,0.244873,0.0769052
60,1.35707,10.0032,0.252917,0.0854009
60,1.35708,7.93953,0.263568,0.09561675
60,1.35708,6.31058,0.275865,0.107467
60,1.35707,5.00801,0.290464,0.122229
60,1.35708,3.97785,0.308225,0.1364371
60,1.35708,3.16296,0.328089,0.152764
60,1.35709,2.51367,0.352995,0.1672176
60,1.35709,1.99553,0.383147,0.180169
60,1.35708,1.58533,0.414578,0.191615
60,1.35709,1.25967,0.448721,0.198928
60,1.35708,1.00006,0.484161,0.202659
60,1.35708,0.793631,0.51829,0.202328
60,1.357097,0.630905,0.548879,0.197699
60,1.35709,0.501541,0.578744,0.194595
60,1.35708,0.397745,0.604929,0.1906721
60,1.35709,0.3161931,0.628108,0.18552
60,1.35711,0.251222,0.648201,0.181142
60,1.35712,0.199339,0.667422,0.177826
60,1.35712,0.158607,0.68675,0.178108
60,1.35712,0.125939,0.705559,0.180043
60,1.35713,0.10007,0.723463,0.181969