File: GEIS/Cell_6_GEIS.csv
SOC [%],Voltage [V],Frequency [Hz],Re(Ztot) [Ohm],-Im(Ztot) [Ohm]
30,1.26717,100003.71,0.2039742,-0.14759
30,1.267166,79433.273,0.203198,-0.115859
30,1.26717,63093.824,0.200227,-0.0894451
30,1.26717,50122.477,0.20004,-0.0670473
30,1.26717,39814.059,0.200662,-0.048526
30,1.26717,31621.139,0.202932,-0.0370108
30,1.26718,25116.91,0.203175,-0.0248447
30,1.26717,19948.785,0.2031787,-0.0180943
30,1.26717,15847.683,0.206632,-0.00891263
30,1.267172,12590.93,0.2084631,-0.00261749
30,1.26717,10002.226,0.211448,0.00349699
30,1.26718,7943.999,0.2131442,0.00745366
30,1.26717,6307.73,0.216839,0.0140128
30,1.26716,5011.604,0.219564,0.0162713
30,1.26717,3981.27,0.2257645,0.0207321
30,1.26717,3161.01,0.228626,0.02215641
30,1.26717,2510.8,0.232367,0.0250888
30,1.26717,1995.64,0.2371,0.0267737
30,1.26717,1585.51,0.243286,0.028511
30,1.26716,1258.79,0.248057,0.0307834
30,1.26716,1000.32,0.253382,0.0331926
30,1.26717,794.238,0.256023,0.0338852
30,1.26717,631.01,0.262127,0.0353635
30,1.26717,501.444,0.26687,0.0368432
30,1.26717,398.089,0.272645,0.0359988
30,1.26717,316.316,0.276937,0.0363096
30,1.26717,251.044,0.283067,0.0390449
30,1.26717,199.553,0.288178,0.0413808
30,1.26717,158.428,0.293556,0.0431535
30,1.26717,125.846,0.298332,0.0444899
30,1.26718,100.032,0.304083,0.0478959
30,1.26717,79.4155,0.310307,0.0507867
30,1.26717,63.0823,0.31816,0.0549188
30,1.26717,50.1444,0.3246828,0.0573449
30,1.26718,39.8089,0.3319644,0.0633527
30,1.26717,31.6296,0.339984,0.0665978
30,1.26717,25.1044,0.3491537,0.0734848
30,1.26718,19.9553,0.358579,0.0787027
30,1.267168,15.8576,0.367347,0.08552286
30,1.26718,12.6008,0.376566,0.0954058
30,1.26719,10.0032,0.3887881,0.104017
30,1.26717,7.93953,0.401481,0.115686
30,1.26719,6.31058,0.414838,0.127392
30,1.2672,5.00801,0.428961,0.142796
30,1.26718,3.97785,0.443866,0.160552
30,1.2672,3.16296,0.46096,0.180648
30,1.2672,2.51367,0.481268,0.205971
30,1.26718,1.99553,0.504493,0.235549
30,1.26719,1.58533,0.533336,0.270437
30,1.26719,1.25967,0.569341,0.309164
30,1.2672,1.00006,0.612936,0.351206
30,1.26719,0.793631,0.668397,0.3955985
30,1.26721,0.630905,0.736458,0.43621
30,1.26723,0.501541,0.815443,0.468785
30,1.26723,0.397745,0.903625,0.492426
30,1.26723,0.3161931,0.993271,0.50042
30,1.26725,0.251222,1.0812,0.494316
30,1.26729,0.199339,1.16139,0.478175
30,1.26732,0.158607,1.23038,0.456617
30,1.26734,0.125939,1.29207,0.43516
30,1.26736,0.10007,1.34557,0.415961
30,1.26791,100003.71,0.2043712,-0.148712
30,1.26775,79433.273,0.200285,-0.113543
30,1.26775,63093.824,0.198982,-0.0894112
30,1.26773,50122.477,0.198444,-0.0679243
30,1.267705,39814.059,0.2007,-0.0497194
30,1.2677,31621.139,0.201783,-0.0348809
30,1.267682,25116.91,0.202477,-0.02639313
30,1.26767,19948.785,0.2047459,-0.0163545
30,1.26767,15847.683,0.207009,-0.0105549
30,1.26766,12590.93,0.207967,-0.002480706
30,1.26765,10002.226,0.211273,0.004407227
30,1.26764,7943.999,0.2120918,0.00874233
30,1.26762,6307.73,0.217394,0.0121166
30,1.26762,5011.604,0.219795,0.0181394
30,1.26761,3981.27,0.224679,0.0182717
30,1.2676,3161.01,0.228259,0.0222082
30,1.2676,2510.8,0.233576,0.025018
30,1.2676,1995.64,0.235825,0.0275158
30,1.2676,1585.51,0.238899,0.0295411
30,1.26759,1258.79,0.245006,0.0306446
30,1.26758,1000.32,0.25032,0.031113
30,1.26758,794.238,0.256982,0.0329578
30,1.26757,631.01,0.262021,0.0341668
30,1.26757,501.444,0.266204,0.0351672
30,1.26757,398.089,0.272271,0.038397
30,1.26757,316.316,0.275977,0.036902
30,1.26756,251.044,0.282473,0.0385965
30,1.26756,199.553,0.28605,0.0414197
30,1.26756,158.428,0.293223,0.0429629
30,1.26756,125.846,0.299536,0.04466464
30,1.26754,100.032,0.304629,0.0489619
30,1.26755,79.4155,0.311934,0.0502039
30,1.26754,63.0823,0.316601,0.0529121
30,1.267543,50.1444,0.32379,0.057903
30,1.26754,39.8089,0.331626,0.0608145
30,1.26755,31.6296,0.339981,0.067068
30,1.26754,25.1044,0.3494736,0.0726193
30,1.26754,19.9553,0.357538,0.079781
30,1.26754,15.8576,0.367187,0.0857987
30,1.26753,12.6008,0.379663,0.0950001
30,1.26752,10.0032,0.388377,0.104103
30,1.26754,7.93953,0.402042,0.115162
30,1.267517,6.31058,0.414513,0.127358
30,1.26751,5.00801,0.429185,0.142016
30,1.26753,3.97785,0.443281,0.160859
30,1.26752,3.16296,0.462452,0.180753
30,1.26752,2.51367,0.481868,0.206345
30,1.26753,1.99553,0.505862,0.235918
30,1.26752,1.58533,0.536274,0.26973
30,1.26753,1.25967,0.571947,0.3083533
30,1.26751,1.00006,0.618239,0.350022
30,1.26753,0.793631,0.674223,0.391967
30,1.26752,0.630905,0.7434715,0.431026
30,1.26751,0.501541,0.821449,0.46359
30,1.26751,0.397745,0.908494,0.4846
30,1.267531,0.3161931,0.996517,0.491514
30,1.26753,0.251222,1.082579,0.487425
30,1.26752,0.199339,1.16214,0.475978
30,1.267511,0.158607,1.23144,0.4573836
30,1.26752,0.125939,1.29305,0.436219
30,1.26756,0.10007,1.34644,0.415893