File: GEIS/Cell_2_GEIS.csv
SOC [%],Voltage [V],Frequency [Hz],Re(Ztot) [Ohm],-Im(Ztot) [Ohm]
70,1.3891,100003.71,0.12157,-0.0966707
70,1.38911,79433.273,0.116879,-0.0763151
70,1.38911,63093.824,0.116619,-0.0582808
70,1.3891,50122.477,0.115332,-0.0457313
70,1.38911,39814.059,0.115613,-0.0339663
70,1.38911,31621.139,0.117201,-0.0234374
70,1.38911,25116.91,0.119571,-0.0188838
70,1.38911,19948.785,0.117252,-0.0138953
70,1.3891,15847.683,0.119168,-0.00874752
70,1.38911,12590.93,0.120571,-0.00602917
70,1.3891,10002.226,0.119311,-0.000693168
70,1.38912,7943.999,0.122352,0.001895297
70,1.3891,6307.73,0.12271,0.0044025
70,1.3891,5011.604,0.124832,0.00697513
70,1.38911,3981.27,0.126637,0.00734309
70,1.3891,3161.01,0.129649,0.00912571
70,1.3891,2510.8,0.128715,0.0112018
70,1.389105,1995.64,0.130854,0.01086
70,1.38911,1585.51,0.133426,0.0123219
70,1.3891,1258.79,0.133317,0.0139767
70,1.3891,1000.32,0.138507,0.0131965
70,1.38911,794.238,0.140182,0.0148306
70,1.3891,631.01,0.142507,0.0180908
70,1.3891,501.444,0.14519,0.017187
70,1.3891,398.089,0.148282,0.02043278
70,1.38911,316.316,0.149467,0.0211235
70,1.38911,251.044,0.152278,0.0234084
70,1.38911,199.553,0.155757,0.0240859
70,1.38911,158.428,0.160259,0.02612553
70,1.38911,125.846,0.163131,0.0282218
70,1.38911,100.032,0.165505,0.0313436
70,1.38911,79.4155,0.169039,0.0334426
70,1.38911,63.0823,0.174985,0.0363172
70,1.38912,50.1444,0.1796581,0.0407776
70,1.38911,39.8089,0.182146,0.0447003
70,1.38911,31.6296,0.186402,0.0487234
70,1.38911,25.1044,0.1921487,0.0551307
70,1.38911,19.9553,0.200203,0.0614557
70,1.38911,15.8576,0.204804,0.06737
70,1.38911,12.6008,0.213973,0.0773542
70,1.38912,10.0032,0.223088,0.0883464
70,1.38911,7.93953,0.235137,0.100596
70,1.389118,6.31058,0.248966,0.113973
70,1.38912,5.00801,0.265144,0.129048
70,1.38912,3.97785,0.284929,0.143298
70,1.38911,3.16296,0.308802,0.157241
70,1.38911,2.51367,0.33583,0.169799
70,1.38911,1.99553,0.364892,0.180372
70,1.38913,1.58533,0.395861,0.185947
70,1.38911,1.25967,0.427339,0.188391
70,1.38913,1.00006,0.456335,0.187334
70,1.38912,0.793631,0.485241,0.185365
70,1.38912,0.630905,0.509562,0.181417
70,1.38914,0.501541,0.530941,0.175814
70,1.38916,0.397745,0.550767,0.171152
70,1.38916,0.3161931,0.56963,0.169213
70,1.38916,0.251222,0.586246,0.167278
70,1.38917,0.199339,0.601725,0.1664433
70,1.3892,0.158607,0.615484,0.16615
70,1.38924,0.125939,0.62887,0.167434
70,1.38927,0.10007,0.643072,0.170275
70,1.389416,100003.71,0.120359,-0.0964037
70,1.38937,79433.273,0.118223,-0.0764714
70,1.389361,63093.824,0.115787,-0.05874934
70,1.38936,50122.477,0.114736,-0.0453121
70,1.38936,39814.059,0.116948,-0.035219
70,1.38936,31621.139,0.119183,-0.0226997
70,1.38935,25116.91,0.116494,-0.0187097
70,1.38935,19948.785,0.119014,-0.01270717
70,1.38936,15847.683,0.118698,-0.00869083
70,1.389347,12590.93,0.119766,-0.003925174
70,1.38935,10002.226,0.120772,-0.000899524
70,1.38935,7943.999,0.1224663,0.0004821968
70,1.38935,6307.73,0.124017,0.002937132
70,1.38934,5011.604,0.1238023,0.00611887
70,1.38934,3981.27,0.127559,0.0076575
70,1.38934,3161.01,0.127838,0.00934505
70,1.38934,2510.8,0.128789,0.00997377
70,1.38934,1995.64,0.131954,0.0125528
70,1.38933,1585.51,0.133814,0.01231676
70,1.38933,1258.79,0.135564,0.01303
70,1.38934,1000.32,0.136504,0.0146744
70,1.38933,794.238,0.139219,0.0163259
70,1.38933,631.01,0.141496,0.0150848
70,1.38933,501.444,0.144953,0.018892
70,1.38933,398.089,0.14798,0.0197267
70,1.38933,316.316,0.1506124,0.0219335
70,1.38933,251.044,0.153954,0.0223461
70,1.38933,199.553,0.156472,0.0237579
70,1.38933,158.428,0.160448,0.0265174
70,1.38933,125.846,0.161797,0.0275538
70,1.38933,100.032,0.165069,0.0304964
70,1.389329,79.4155,0.168996,0.0343025
70,1.38933,63.0823,0.174636,0.0358713
70,1.38933,50.1444,0.17918,0.04082356
70,1.38932,39.8089,0.182863,0.0452665
70,1.38932,31.6296,0.188143,0.049113
70,1.389328,25.1044,0.193265,0.0528951
70,1.38932,19.9553,0.199682,0.0601922
70,1.38933,15.8576,0.205306,0.0688171
70,1.38933,12.6008,0.213875,0.078152
70,1.38932,10.0032,0.223352,0.0884628
70,1.38932,7.93953,0.235447,0.100511
70,1.38933,6.31058,0.249725,0.113608
70,1.38933,5.00801,0.2666015,0.128306
70,1.38933,3.97785,0.2865566,0.142361
70,1.38933,3.16296,0.310784,0.155682
70,1.38934,2.51367,0.337675,0.1667514
70,1.38934,1.99553,0.366945,0.175375
70,1.38933,1.58533,0.398002,0.180476
70,1.38934,1.25967,0.427553,0.1819057
70,1.38933,1.00006,0.456759,0.180581
70,1.38933,0.793631,0.483285,0.178655
70,1.38935,0.630905,0.506897,0.172871
70,1.38935,0.501541,0.529496,0.170019
70,1.38934,0.397745,0.549793,0.16816
70,1.38935,0.3161931,0.568177,0.165772
70,1.38937,0.251222,0.58369,0.163432
70,1.38939,0.199339,0.598433,0.162718
70,1.3894,0.158607,0.614361,0.164833
70,1.38941,0.125939,0.630329,0.16853
70,1.38942,0.10007,0.645479,0.172233