File: GEIS/Cell_7_GEIS.csv
SOC [%],Voltage [V],Frequency [Hz],Re(Ztot) [Ohm],-Im(Ztot) [Ohm]
100,1.60894,100003.71,0.173501,-0.0514607
100,1.60892,25116.91,0.179732,0.00860015
100,1.60891,6307.73,0.202161,0.0466483
100,1.6089,1585.51,0.233709,0.114799
100,1.60888,398.089,0.268146,0.367156
100,1.60891,100.032,0.380861,1.34422
100,1.60893,25.1044,1.39516,4.87334
100,1.60829,6.31058,9.513855,11.3358
100,1.60757,1.58469,20.14848,6.87891
100,1.60799,0.397745,21.0022,3.31961
100,1.60839,0.09990409,20.4515,3.62055
100,1.6052,31621.139,0.179882,0.00276095
100,1.60538,7943.999,0.199763,0.0403108
100,1.60558,1995.64,0.230657,0.0968189
100,1.60576,501.444,0.265792,0.296367
100,1.60593,125.846,0.387925,1.06734
100,1.606143,31.6296,1.57447,3.57959
100,1.60633,7.93953,7.1242,5.60966
100,1.6065,1.99706,11.2931,3.413827
100,1.60707,0.501187,12.8095,1.96446
100,1.60828,0.125907,14.1035,1.97186
90,1.4832,39814.059,0.157714,-0.0209921
90,1.4832,10002.226,0.160384,0.000490572
90,1.4832,2510.8,0.168294,0.00960109
90,1.4832,631.01,0.178528,0.016403
90,1.4832,158.428,0.192415,0.0287533
90,1.4832,39.8089,0.214426,0.0649998
90,1.4832,10.0032,0.279014,0.1739907
90,1.4832,2.51367,0.527441,0.332772
90,1.4832,0.630905,0.842129,0.320908
90,1.4832,0.158607,1.02481,0.303838
90,1.48322,50122.477,0.158313,-0.0276233
90,1.48324,12590.93,0.159732,-0.0014755
90,1.48324,3161.01,0.166908,0.00869861
90,1.48324,794.238,0.176771,0.0151982
90,1.48324,199.553,0.189663,0.0261813
90,1.48324,50.1444,0.209353,0.0562955
90,1.48324,12.6008,0.261169,0.148423
90,1.48323,3.16296,0.472193,0.313062
90,1.48323,0.793631,0.802746,0.328636
90,1.48322,0.199339,1.0053,0.303659
80,1.42232,63093.824,0.163702,-0.03448045
80,1.42232,15847.683,0.165285,-0.00286085
80,1.42232,3981.27,0.172513,0.00769865
80,1.42232,1000.32,0.182037,0.0143499
80,1.42233,251.044,0.195832,0.0212445
80,1.42233,63.0823,0.2142956,0.03605736
80,1.42234,15.8576,0.246048,0.0760915
80,1.42234,3.97785,0.342709,0.158793
80,1.42236,1.00006,0.523403,0.1960359
80,1.42243,0.251222,0.666724,0.19346
80,1.42232,79433.273,0.164213,-0.0447452
80,1.42244,19948.785,0.16446,-0.00665691
80,1.42248,5011.604,0.170503,0.006455234
80,1.4225,1258.79,0.18064,0.0130132
80,1.42251,316.316,0.193297,0.0198429
80,1.42252,79.4155,0.210355,0.0323955
80,1.42253,19.9553,0.237867,0.0667337
80,1.42255,5.00801,0.318705,0.145335
80,1.42256,1.25967,0.4958007,0.197071
80,1.42262,0.3161931,0.650834,0.195253
70,1.3874,100003.71,0.160258,-0.0563417
70,1.38741,25116.91,0.159795,-0.00915393
70,1.38741,6307.73,0.166286,0.006127103
70,1.38742,1585.51,0.176143,0.0125737
70,1.38742,398.089,0.188712,0.0187679
70,1.38743,100.032,0.206767,0.0288111
70,1.38743,25.1044,0.231311,0.0515533
70,1.38744,6.31058,0.282805,0.113456
70,1.38745,1.58533,0.4333601,0.196142
70,1.38749,0.397745,0.6169951,0.201941
70,1.38765,0.10007,0.75105,0.211606
70,1.38781,31621.139,0.158499,-0.0132805
70,1.38778,7943.999,0.16419,0.00412743
70,1.38776,1995.64,0.173406,0.0118117
70,1.38775,501.444,0.186169,0.01763312
70,1.38774,125.846,0.203021,0.0265188
70,1.38774,31.6296,0.225291,0.0453834
70,1.38774,7.93953,0.269423,0.0995179
70,1.38774,1.99553,0.401589,0.185944
70,1.38776,0.501541,0.591257,0.200662
70,1.38786,0.125939,0.731168,0.206971
60,1.35446,39814.059,0.1678312,-0.0172765
60,1.35446,10002.226,0.17433,0.00484332
60,1.35446,2510.8,0.1859792,0.0133403
60,1.35447,631.01,0.200445,0.0203993
60,1.35447,158.428,0.2193408,0.0290681
60,1.35447,39.8089,0.2464814,0.0458874
60,1.35448,10.0032,0.286273,0.08730494
60,1.35449,2.51367,0.383771,0.187909
60,1.35452,0.630905,0.619729,0.265925
60,1.3546,0.158607,0.827775,0.249346
60,1.35457,50122.477,0.167281,-0.0245513
60,1.35463,12590.93,0.173105,0.00258828
60,1.35465,3161.01,0.1836959,0.012602
60,1.35466,794.238,0.1977,0.0184901
60,1.35467,199.553,0.215824,0.0272697
60,1.35468,50.1444,0.2412308,0.04192163
60,1.35469,12.6008,0.277546,0.0765516
60,1.3547,3.16296,0.357933,0.167232
60,1.35472,0.793631,0.577963,0.264787
60,1.3548,0.199339,0.801539,0.252665
50,1.33282,63093.824,0.1758458,-0.0316291
50,1.33282,15847.683,0.180604,0.00195011
50,1.33282,3981.27,0.193353,0.0151337
50,1.33283,1000.32,0.210986,0.0225298
50,1.33283,251.044,0.232455,0.0298617
50,1.33284,63.0823,0.2597532,0.043324
50,1.33284,15.8576,0.299411,0.07215695
50,1.33284,3.97785,0.3643711,0.147012
50,1.33286,1.00006,0.555452,0.288645
50,1.33293,0.251222,0.859956,0.308656
50,1.33278,79433.273,0.175629,-0.0418498
50,1.33294,19948.785,0.178961,-0.00150088
50,1.33298,5011.604,0.190756,0.0138641
50,1.33301,1258.79,0.207695,0.0218385
50,1.333021,316.316,0.228646,0.0277724
50,1.33303,79.4155,0.25433,0.0407378
50,1.33304,19.9553,0.291669,0.0647479
50,1.33306,5.00801,0.348861,0.128545
50,1.33307,1.25967,0.508561,0.267598
50,1.33313,0.3161931,0.8180782,0.319713
40,1.30799,100003.71,0.2062065,-0.0545764
40,1.308,25116.91,0.209017,-0.004465448
40,1.308,6307.73,0.220737,0.0157025
40,1.30801,1585.51,0.241539,0.02602657
40,1.30801,398.089,0.269299,0.0334346
40,1.308019,100.032,0.299266,0.0432287
40,1.30802,25.1044,0.338597,0.0651574
40,1.30803,6.31058,0.395084,0.115
40,1.30804,1.58533,0.513544,0.2522551
40,1.30809,0.397745,0.852669,0.398005
40,1.30826,0.10007,1.18074,0.34916
40,1.30834,31621.139,0.208219,-0.00910852
40,1.30832,7943.999,0.2187797,0.0131411
40,1.30831,1995.64,0.237958,0.0253494
40,1.30831,501.444,0.264626,0.03284083
40,1.30831,125.846,0.294423,0.0412863
40,1.30832,31.6296,0.332208,0.0597362
40,1.30832,7.93953,0.3843383,0.103189
40,1.30833,1.99553,0.4832644,0.2217078
40,1.30835,0.501541,0.7844503,0.391204
40,1.30846,0.125939,1.14209,0.363296
30,1.27098,39814.059,0.2684332,-0.0124999
30,1.27099,10002.226,0.280591,0.0143828
30,1.27099,2510.8,0.30301,0.02823517
30,1.27099,631.01,0.332537,0.0342822
30,1.271,158.428,0.3626794,0.04058171
30,1.27101,39.8089,0.399696,0.0584269
30,1.271,10.0032,0.45222,0.0960997
30,1.27101,2.51367,0.534092,0.193011
30,1.27104,0.630905,0.772199,0.425799
30,1.27115,0.158607,1.28473,0.504523
30,1.27103,50122.477,0.2665172,-0.0200041
30,1.27114,12590.93,0.277438,0.0111877
30,1.27118,3161.01,0.298711,0.0260855
30,1.2712,794.238,0.327239,0.03332227
30,1.27122,199.553,0.3575422,0.0394055
30,1.27123,50.1444,0.392131,0.0539368
30,1.27124,12.6008,0.442117,0.0871781
30,1.27125,3.16296,0.515947,0.1681102
30,1.27129,0.793631,0.709368,0.382423
30,1.271379,0.199339,1.20521,0.5215209
20,1.21006,63093.824,0.387432,-0.0255797
20,1.21007,15847.683,0.4011776,0.00990653
20,1.21007,3981.27,0.421853,0.02044833
20,1.21008,1000.32,0.440421,0.0226991
20,1.21009,251.044,0.461244,0.03217264
20,1.21009,63.0823,0.491845,0.0527393
20,1.2101,15.8576,0.543444,0.0895947
20,1.21011,3.97785,0.6242623,0.161017
20,1.21012,1.00006,0.756949,0.358295
20,1.21022,0.251222,1.22757,0.803429
20,1.20951,79433.273,0.386175,-0.036741
20,1.210169,19948.785,0.397985,0.00650426
20,1.21026,5011.604,0.418683,0.019607
20,1.21031,1258.79,0.437854,0.0222154
20,1.21033,316.316,0.4568555,0.0298425
20,1.21035,79.4155,0.485056,0.0477042
20,1.21037,19.9553,0.53293,0.08101205
20,1.21037,5.00801,0.608185,0.144836
20,1.2104,1.25967,0.724844,0.3092559
20,1.2105,0.3161931,1.09965,0.728902
10,1.1427,100003.71,0.713956,-0.04434831
10,1.14271,25116.91,0.7297012,0.0145414
10,1.14271,6307.73,0.759966,0.0447707
10,1.14271,1585.51,0.809704,0.0765246
10,1.14272,398.089,0.890709,0.122014
10,1.14272,100.032,1.02967,0.165078
10,1.14273,25.1044,1.1818,0.166701
10,1.14272,6.31058,1.31342,0.19482
10,1.14275,1.58533,1.46372,0.314485
10,1.14279,0.397745,1.717581,0.732543
10,1.14284,0.10007,2.75103,1.54481
10,1.14209,31621.139,0.726144,0.007768256
10,1.14252,7943.999,0.753635,0.0401823
10,1.14267,1995.64,0.799487,0.0699038
10,1.14275,501.444,0.8732291,0.112841
10,1.14279,125.846,1.00297,0.160061
10,1.14282,31.6296,1.15929,0.166466
10,1.14284,7.93953,1.2913,0.185977
10,1.14291,1.99553,1.43692,0.283219
10,1.14293,0.501541,1.65319,0.626216
10,1.14302,0.125939,2.47186,1.44791
0,0.978497,39814.059,0.950138,0.0119855
0,0.978505,10002.226,0.98548,0.053528
0,0.978517,2510.8,1.04544,0.0980861
0,0.978528,631.01,1.14624,0.167032
0,0.9785405,158.428,1.32312,0.282492
0,0.978567,39.8089,1.6422,0.4224683
0,0.978561,10.0032,2.04916,0.507752
0,0.978457,2.51367,2.39319,0.736619
0,0.978542,0.630905,2.89219,1.872008
0,0.978639,0.158607,5.35725,4.79207
0,0.976896,50122.477,0.945207,0.00276538
0,0.978055,12590.93,0.978459,0.0470136
0,0.978506,3161.01,1.03337,0.0893169
0,0.978752,794.238,1.12521,0.152623
0,0.978898,199.553,1.28504,0.259894
0,0.978991,50.1444,1.57825,0.40202
0,0.979084,12.6008,1.9837,0.493989
0,0.979235,3.16296,2.34228,0.665313
0,0.979222,0.793631,2.76124,1.56908
0,0.9794608,0.199339,4.65323,4.23982
0,0.979312,0.10007,7.142198,5.80382