File: GEIS/Cell_1_GEIS.csv
SOC [%],Voltage [V],Frequency [Hz],Re(Ztot) [Ohm],-Im(Ztot) [Ohm]
100,1.60483,100003.71,0.117098,-0.091628
100,1.6048,79433.273,0.115748,-0.0674143
100,1.604797,63093.824,0.114451,-0.0491012
100,1.60479,50122.477,0.113546,-0.03306862
100,1.60479,39814.059,0.1164987,-0.0209956
100,1.60479,31621.139,0.117437,-0.0108349
100,1.60478,25116.91,0.120568,-0.000979579
100,1.60478,19948.785,0.123001,0.00713055
100,1.60477,15847.683,0.125815,0.0137984
100,1.60478,12590.93,0.128085,0.02181693
100,1.60477,10002.226,0.132604,0.0284671
100,1.60477,7943.999,0.136846,0.0359727
100,1.60476,6307.73,0.142166,0.04254403
100,1.60475,5011.604,0.144864,0.0532534
100,1.60475,3981.27,0.1531145,0.0605751
100,1.604755,3161.01,0.157235,0.0688427
100,1.60474,2510.8,0.162751,0.07983
100,1.60475,1995.64,0.166622,0.093934
100,1.60473,1585.51,0.171857,0.112634
100,1.60473,1258.79,0.178612,0.133679
100,1.60474,1000.32,0.181637,0.160021
100,1.60474,794.238,0.187737,0.193132
100,1.60473,631.01,0.19302,0.237545
100,1.60474,501.444,0.201251,0.2891224
100,1.60473,398.089,0.207974,0.357162
100,1.60473,316.316,0.220319,0.439509
100,1.60473,251.044,0.235396,0.545669
100,1.60473,199.553,0.251297,0.674415
100,1.60471,158.428,0.278901,0.836764
100,1.60468,125.846,0.31443,1.04292
100,1.604672,100.032,0.369176,1.29053
100,1.60463,79.4155,0.449628,1.59641
100,1.60462,63.0823,0.564335,1.97132
100,1.60457,50.1444,0.735769,2.417239
100,1.6045,39.8089,0.988316,2.944468
100,1.60429,31.6296,1.34939,3.5479
100,1.60406,25.1044,1.880208,4.19967
100,1.60363,19.9553,2.610106,4.84475
100,1.60314,15.8576,3.57085,5.36776
100,1.60257,12.6008,4.712913,5.64738
100,1.60201,10.0032,5.90897,5.62236
100,1.60161,7.93953,7.00324,5.28793
100,1.60127,6.31058,7.89605,4.77374
100,1.60108,5.00801,8.56418,4.17347
100,1.60095,3.97785,9.045434,3.59174
100,1.600839,3.16296,9.35032,3.06105
100,1.60079,2.51367,9.54269,2.61643
100,1.60086,1.99553,9.65513,2.26243
100,1.60106,1.58533,9.69643,1.9945
100,1.6011,1.25967,9.67301,1.79084
100,1.60148,1.00006,9.60638,1.6624
100,1.60186,0.793631,9.48925,1.58442
100,1.60222,0.630905,9.29855,1.54394
100,1.603,0.501541,9.09305,1.53779
100,1.603822,0.397745,8.8802,1.56563
100,1.60449,0.3161931,8.66055,1.59402
100,1.60506,0.251222,8.4181,1.62184
100,1.60567,0.199339,8.16535,1.63976
100,1.60634,0.158607,7.92314,1.660681
100,1.60689,0.125939,7.65734,1.68859
100,1.60723,0.10007,7.32013,1.69984
100,1.60427,100003.71,0.113506,-0.0899737
100,1.6048,79433.273,0.111103,-0.067979
100,1.60487,63093.824,0.115689,-0.0491931
100,1.60494,50122.477,0.115813,-0.0329139
100,1.605,39814.059,0.1159054,-0.0188767
100,1.60506,31621.139,0.120028,-0.00824065
100,1.60511,25116.91,0.122174,0.0006184947
100,1.60515,19948.785,0.124846,0.00784512
100,1.60518,15847.683,0.126904,0.0166607
100,1.60522,12590.93,0.130568,0.0237349
100,1.60525,10002.226,0.134389,0.0287208
100,1.60528,7943.999,0.138875,0.0368893
100,1.6053,6307.73,0.143266,0.0444635
100,1.60532,5011.604,0.148122,0.0528507
100,1.605341,3981.27,0.1552106,0.0618763
100,1.60537,3161.01,0.159959,0.0700297
100,1.60539,2510.8,0.1654278,0.0834527
100,1.60541,1995.64,0.169708,0.0965115
100,1.60543,1585.51,0.17475,0.113323
100,1.60545,1258.79,0.179869,0.135821
100,1.605459,1000.32,0.186878,0.162634
100,1.60547,794.238,0.192506,0.1973408
100,1.605486,631.01,0.199961,0.239886
100,1.605498,501.444,0.209077,0.290535
100,1.60552,398.089,0.220021,0.358386
100,1.60552,316.316,0.235057,0.441373
100,1.60554,251.044,0.255805,0.545014
100,1.60555,199.553,0.283979,0.673721
100,1.60555,158.428,0.326323,0.831711
100,1.60555,125.846,0.390979,1.02831
100,1.60556,100.032,0.485849,1.25993
100,1.60556,79.4155,0.625003,1.53562
100,1.60553,63.0823,0.824416,1.84831
100,1.6055,50.1444,1.10762,2.18573
100,1.60545,39.8089,1.48864,2.52588
100,1.605427,31.6296,1.9793,2.82154
100,1.60538,25.1044,2.561595,3.02834
100,1.60535,19.9553,3.18609,3.10624
100,1.60534,15.8576,3.798615,3.05698
100,1.60534,12.6008,4.34993,2.9084
100,1.60535,10.0032,4.82177,2.7025
100,1.6054,7.93953,5.214,2.47343
100,1.60545,6.31058,5.53163,2.25375
100,1.60552,5.00801,5.79449,2.04624
100,1.60568,3.97785,6.01497,1.8625
100,1.60581,3.16296,6.19913,1.70331
100,1.60595,2.51367,6.353745,1.567391
100,1.606076,1.99553,6.48391,1.45325
100,1.60611,1.58533,6.5763,1.36179
100,1.60632,1.25967,6.64905,1.2877
100,1.60635,1.00006,6.70004,1.23992
100,1.606542,0.793631,6.73184,1.20913
100,1.60675,0.630905,6.745934,1.19901
100,1.60678,0.501541,6.77094,1.21448
100,1.60688,0.397745,6.77651,1.23882
100,1.6071,0.3161931,6.78673,1.28033
100,1.60731,0.251222,6.78951,1.33256
100,1.60742,0.199339,6.79572,1.38877
100,1.60742,0.158607,6.78156,1.44469
100,1.60741,0.125939,6.71417,1.48444
100,1.60747,0.10007,6.61692,1.51006